  R      T(K)
207.74	294.85
207.65	294.34
207.57	293.83
207.43	293.31
207.35	292.80
207.23	292.27
207.07	291.78
207.01	291.27
206.82	290.76
206.64	290.24
206.54	289.72
206.33	289.20
206.21	288.67
206.01	288.14
205.96	287.60
205.76	287.05
205.58	286.51
205.44	285.96
205.21	285.44
205.09	284.92
204.93	284.39
204.75	283.87
204.60	283.33
204.42	282.81
204.21	282.28
204.02	281.75
203.91	281.22
203.66	280.69
203.53	280.17
203.33	279.65
203.13	279.12
203.00	278.59
202.82	278.07
202.59	277.54
202.41	277.02
202.28	276.50
202.11	275.98
201.90	275.47
201.72	274.97
201.49	274.46
201.36	273.96
201.11	273.46
200.99	272.95
200.84	272.45
200.64	271.96
200.48	271.46
200.29	270.96
200.09	270.49
199.93	270.02
199.74	269.55
199.62	269.08
199.40	268.61
199.23	268.15
199.06	267.68
198.87	267.21
198.69	266.74
198.53	266.28
198.39	265.82
198.22	265.36
197.97	264.90
197.87	264.44
197.65	263.98
197.50	263.52
197.33	263.07
197.14	262.61
197.00	262.15
196.83	261.69
196.63	261.24
196.47	260.79
196.33	260.32
196.11	259.81
195.88	259.30
195.71	258.80
195.53	258.28
195.41	257.83
195.23	257.32
195.04	256.81
194.85	256.31
194.63	255.80
194.48	255.31
194.32	254.82
194.04	254.33
193.90	253.84
193.67	253.29
193.52	252.80
193.37	252.31
193.19	251.82
192.98	251.34
192.80	250.80
192.59	250.33
192.39	249.81
192.25	249.34
192.03	248.82
191.84	248.30
191.63	247.84
191.46	247.31
191.26	246.80
191.10	246.33
190.86	245.81
190.71	245.30
190.55	244.84
190.31	244.32
190.16	243.81
189.92	243.30
189.77	242.83
189.56	242.32
189.41	241.81
189.19	241.35
189.01	240.84
188.80	240.33
188.60	239.82
188.40	239.31
188.24	238.81
188.04	238.34
187.89	237.84
187.70	237.33
187.49	236.82
187.26	236.31
187.10	235.81
186.90	235.32
186.80	234.82
186.53	234.33
186.40	233.84
186.17	233.35
185.94	232.81
185.81	232.32
185.62	231.82
185.39	231.33
185.24	230.84
185.05	230.32
184.86	229.83
184.68	229.35
184.47	228.82
184.28	228.33
184.14	227.85
183.91	227.32
183.76	226.84
183.56	226.35
183.38	225.83
183.11	225.35
182.91	224.83
182.76	224.36
182.60	223.84
182.39	223.32
182.16	222.84
182.04	222.32
181.81	221.85
181.62	221.32
181.43	220.85
181.22	220.33
181.04	219.82
180.86	219.35
180.66	218.83
180.48	218.32
180.30	217.85
180.11	217.33
179.88	216.85
179.72	216.34
179.51	215.82
179.31	215.32
179.12	214.83
178.92	214.32
178.72	213.83
178.53	213.32
178.36	212.82
178.14	212.37
178.00	211.86
177.74	211.36
177.61	210.86
177.40	210.32
177.16	209.83
177.02	209.34
176.81	208.84
176.63	208.35
176.43	207.85
176.23	207.36
176.03	206.86
175.80	206.32
175.63	205.83
175.46	205.34
175.27	204.84
175.11	204.35
174.90	203.85
174.72	203.35
174.57	202.84
174.32	202.34
174.17	201.84
173.99	201.35
173.77	200.85
173.57	200.37
173.42	199.85
173.21	199.36
173.01	198.84
172.78	198.35
172.55	197.82
172.37	197.33
172.23	196.84
172.01	196.34
171.85	195.85
171.59	195.33
171.45	194.85
171.19	194.33
171.00	193.85
170.81	193.33
170.64	192.85
170.40	192.33
170.25	191.85
169.99	191.34
169.82	190.86
169.63	190.35
169.41	189.87
169.25	189.35
169.05	188.84
168.84	188.36
168.63	187.84
168.41	187.37
168.23	186.85
168.01	186.34
167.83	185.86
167.67	185.37
167.41	184.87
167.24	184.37
167.02	183.87
166.80	183.37
166.63	182.88
166.37	182.35
166.18	181.86
165.98	181.38
165.77	180.85
165.55	180.38
165.32	179.88
165.10	179.37
164.95	178.86
164.63	178.35
164.46	177.88
164.28	177.37
164.04	176.86
163.82	176.35
163.62	175.87
163.37	175.37
163.16	174.86
162.96	174.35
162.77	173.88
162.56	173.38
162.34	172.87
162.13	172.36
161.93	171.86
161.75	171.36
161.46	170.86
161.29	170.37
161.05	169.85
160.81	169.37
160.64	168.89
160.39	168.36
160.17	167.88
159.92	167.35
159.80	166.86
159.58	166.37
159.38	165.88
159.12	165.37
158.88	164.89
158.69	164.37
158.49	163.89
158.25	163.37
158.05	162.88
157.75	162.37
157.50	161.88
157.31	161.35
157.11	160.87
156.93	160.38
156.69	159.87
156.46	159.35
156.20	158.87
156.00	158.39
155.79	157.87
155.55	157.38
155.28	156.86
155.11	156.37
154.85	155.89
154.61	155.38
154.39	154.88
154.13	154.37
153.94	153.86
153.67	153.39
153.44	152.88
153.21	152.37
152.96	151.89
152.69	151.38
152.42	150.87
152.24	150.36
151.93	149.86
151.70	149.39
151.46	148.89
151.22	148.38
150.90	147.88
150.68	147.37
150.41	146.86
150.13	146.36
149.88	145.89
149.63	145.39
149.29	144.86
148.99	144.37
148.73	143.88
148.42	143.38
148.07	142.88
147.78	142.39
147.44	141.89
147.07	141.39
146.68	140.87
146.32	140.38
145.88	139.87
145.52	139.39
145.06	138.87
144.67	138.39
144.21	137.88
143.75	137.39
143.29	136.88
142.83	136.39
142.32	135.88
141.85	135.38
141.35	134.88
140.89	134.38
140.38	133.88
139.91	133.38
139.42	132.88
138.97	132.38
138.56	131.88
138.04	131.38
137.60	130.88
137.13	130.39
136.63	129.88
136.22	129.38
135.75	128.90
135.28	128.38
134.86	127.89
134.42	127.39
133.93	126.87
133.56	126.38
133.10	125.89
132.65	125.38
132.23	124.90
131.78	124.39
131.40	123.87
130.99	123.39
130.55	122.88
130.16	122.40
129.68	121.89
129.26	121.38
128.87	120.90
128.47	120.38
128.04	119.89
127.61	119.40
127.21	118.88
126.85	118.39
126.43	117.90
126.00	117.39
125.56	116.90
125.17	116.40
124.83	115.88
124.41	115.39
123.96	114.89
123.57	114.39
123.14	113.89
122.82	113.40
122.40	112.90
122.06	112.39
121.65	111.89
121.27	111.38
120.90	110.91
120.48	110.39
120.13	109.89
119.76	109.40
119.33	108.89
118.99	108.40
118.68	107.91
118.26	107.39
117.90	106.90
117.54	106.39
117.16	105.90
116.79	105.40
116.48	104.89
116.00	104.39
115.64	103.89
115.32	103.41
114.96	102.91
114.55	102.40
114.20	101.89
113.92	101.41
113.55	100.90
113.18	100.41
112.80	99.891
112.48	99.396
112.09	98.898
111.76	98.398
111.43	97.894
111.10	97.414
110.73	96.905
110.41	96.391
110.09	95.905
109.70	95.399
109.35	94.890
109.09	94.406
108.74	93.891
108.43	93.400
108.05	92.907
107.73	92.409
107.42	91.909
107.08	91.405
106.72	90.900
106.43	90.390
106.09	89.907
105.74	89.393
105.47	88.905
105.13	88.390
104.81	87.904
104.45	87.413
104.09	86.888
103.81	86.388
103.51	85.888
103.21	85.406
102.88	84.891
102.58	84.399
102.24	83.899
101.96	83.397
101.59	82.892
101.27	82.381
100.93	81.895
100.68	81.403
100.39	80.882
100.06	80.407
99.735	79.895
99.440	79.380
99.106	78.891
98.792	78.395
98.470	77.894
98.277	77.388
97.876	76.874
97.577	76.387
97.332	75.899
97.002	75.399
96.661	74.893
96.403	74.380
96.097	73.892
95.817	73.397
95.507	72.894
95.214	72.385
94.902	71.871
94.623	71.382
94.334	70.892
94.050	70.400
93.812	69.898
93.428	69.389
93.138	68.872
92.863	68.381
92.562	67.880
92.302	67.370
92.038	66.887
91.630	66.354
91.388	65.851
91.146	65.378
90.854	64.878
90.565	64.368
90.258	63.843
90.004	63.351
89.745	62.848
89.435	62.334
89.169	61.851
88.903	61.358
88.641	60.866
88.347	60.340
88.119	59.845
87.805	59.340
87.519	58.823
87.283	58.341
86.997	57.849
86.723	57.347
86.454	56.847
86.197	56.310
85.967	55.811
85.685	55.304
85.426	54.838
85.171	54.316
84.878	53.839
84.607	53.302
84.341	52.864
84.130	52.326
83.836	51.810
83.604	51.338
83.275	50.811
83.015	50.331
82.818	49.841
82.508	49.332
82.221	48.822
81.970	48.309
81.698	47.835
81.453	47.315
81.231	46.843
80.905	46.333
80.705	45.837
80.415	45.338
80.105	44.832
79.892	44.326
79.609	43.832
79.372	43.327
79.128	42.834
78.836	42.347
78.593	41.853
78.320	41.349
78.112	40.851
77.820	40.322
77.551	39.847
77.277	39.323
77.040	38.835
76.807	38.347
76.571	37.861
76.276	37.343
76.111	36.824
75.841	36.343
75.536	35.812
75.237	35.328
75.073	34.854
74.798	34.332
74.606	33.848
74.341	33.312
74.108	32.829
73.878	32.355
73.667	31.828
73.402	31.338
73.144	30.848
72.886	30.326
72.698	29.837
72.556	29.344
72.299	28.845
72.034	28.317
71.840	27.817
71.616	27.312
71.402	26.812
71.222	26.318
70.943	25.813
70.782	25.341
70.540	24.840
70.351	24.329
70.139	23.799
69.969	23.329
69.758	22.810
69.524	22.322
69.357	21.841
69.189	21.315
69.025	20.826
68.797	20.334
68.624	19.798
68.456	19.296
68.238	18.805
68.158	18.310
67.955	17.810
67.788	17.323
67.685	16.821
67.484	16.331
67.371	15.835
67.256	15.298
67.122	14.803
66.972	14.326
66.826	13.798
66.667	13.333
66.594	12.821
66.499	12.338
66.348	11.861
66.279	11.364
66.191	10.858
66.110	10.383
66.023	9.8818
65.896	9.4070
65.861	8.9221
65.811	8.4381
65.735	7.9558
65.631	7.4825
65.610	6.9916
65.565	6.4959
65.551	5.9974
65.503	5.4992
